TITLE;
DATA TYPE;
ORIGIN;JASCO
OWNER;
DATE;20/09/15
TIME;14:29:11
SPECTROMETER/DATA SYSTEM;
LOCALE;1031
RESOLUTION;
DELTAX;-1
XUNITS;NANOMETERS
YUNITS;CD [mdeg]
Y2UNITS;HT [V]
Y3UNITS;ABSORBANCE
FIRSTX;  330,0000
LASTX;  200,0000
NPOINTS;     131
FIRSTY;     0,02561
MAXY;     3,01592
MINY;    -2,54661
XYDATA
330,0000;0,0256093;197,106;0,000239335
329,0000;0,0419078;197,229;0,000216378
328,0000;0,0216441;197,356;0,000259785
327,0000;0,0121165;197,473;0,000323313
326,0000;-0,0355576;197,569;0,000369821
325,0000;-0,036056;197,63;0,000367117
324,0000;-0,0105174;197,657;0,000334726
323,0000;0,01875;197,688;0,000345611
322,0000;0,0180628;197,774;0,000393504
321,0000;0,00308482;197,938;0,000537646
320,0000;0,0405121;198,146;0,000571554
319,0000;0,0537262;198,341;0,000560471
318,0000;0,0537013;198,508;0,000566474
317,0000;-0,00699412;198,646;0,000652432
316,0000;-0,0258886;198,763;0,00067684
315,0000;-0,00958201;198,862;0,000706922
314,0000;0,024883;198,94;0,000727834
313,0000;0,0293015;199,04;0,000851592
312,0000;0,0155558;199,196;0,00096044
311,0000;0,0114639;199,429;0,00116
310,0000;0,0304296;199,699;0,00127861
309,0000;0,0464183;199,971;0,00142295
308,0000;0,052594;200,239;0,00175998
307,0000;0,0524292;200,502;0,0022405
306,0000;0,0319733;200,787;0,00291107
305,0000;0,0696665;201,089;0,00365408
304,0000;0,0784887;201,404;0,00443053
303,0000;0,0871867;201,747;0,00553551
302,0000;0,103584;202,127;0,00705339
301,0000;0,114899;202,546;0,00903067
300,0000;0,186227;203,013;0,0114883
299,0000;0,238242;203,543;0,0146531
298,0000;0,309958;204,145;0,0186574
297,0000;0,331648;204,823;0,0234605
296,0000;0,382793;205,565;0,0291494
295,0000;0,44659;206,395;0,0357872
294,0000;0,609832;207,28;0,0435573
293,0000;0,754536;208,218;0,0525552
292,0000;0,929623;209,217;0,0626971
291,0000;1,12323;210,347;0,0739659
290,0000;1,28849;211,677;0,0863275
289,0000;1,41302;213,205;0,099818
288,0000;1,53205;214,837;0,114266
287,0000;1,66738;216,495;0,129471
286,0000;1,82165;218,158;0,145142
285,0000;1,98405;219,844;0,161248
284,0000;2,07021;221,566;0,17776
283,0000;2,1821;223,317;0,194758
282,0000;2,31881;225,077;0,211797
281,0000;2,4985;226,844;0,228942
280,0000;2,6664;228,629;0,246204
279,0000;2,77165;230,434;0,263446
278,0000;2,84555;232,254;0,280461
277,0000;2,91839;234,078;0,297307
276,0000;2,97964;235,871;0,313629
275,0000;3,01592;237,644;0,329607
274,0000;2,97231;239,38;0,345182
273,0000;2,89268;241,108;0,360479
272,0000;2,83514;242,829;0,375294
271,0000;2,76812;244,572;0,389542
270,0000;2,65892;246,328;0,403002
269,0000;2,47978;248,087;0,415685
268,0000;2,24321;249,83;0,427558
267,0000;2,05224;251,546;0,43857
266,0000;1,81795;253,234;0,448643
265,0000;1,55463;254,892;0,457851
264,0000;1,2516;256,514;0,466056
263,0000;0,961333;258,081;0,473274
262,0000;0,689642;259,59;0,479507
261,0000;0,319233;261,039;0,484535
260,0000;-0,0659276;262,393;0,488205
259,0000;-0,440581;263,635;0,490269
258,0000;-0,703699;264,746;0,490899
257,0000;-0,995903;265,707;0,489811
256,0000;-1,38171;266,521;0,486825
255,0000;-1,65891;267,182;0,482029
254,0000;-1,80347;267,714;0,475522
253,0000;-1,99899;268,155;0,467882
252,0000;-2,15323;268,511;0,459189
251,0000;-2,27704;268,784;0,449291
250,0000;-2,33813;268,979;0,438162
249,0000;-2,31328;269,107;0,425804
248,0000;-2,42616;269,192;0,412496
247,0000;-2,52644;269,255;0,398461
246,0000;-2,54661;269,319;0,383964
245,0000;-2,40058;269,4;0,369276
244,0000;-2,31145;269,528;0,354563
243,0000;-2,19008;269,722;0,339979
242,0000;-2,11563;270,006;0,32554
241,0000;-2,01157;270,405;0,31149
240,0000;-1,83078;270,944;0,298196
239,0000;-1,7733;271,632;0,285675
238,0000;-1,57335;272,479;0,27406
237,0000;-1,42661;273,493;0,263516
236,0000;-1,1332;274,676;0,254216
235,0000;-0,929645;276,024;0,246154
234,0000;-0,832487;277,528;0,239494
233,0000;-0,676126;279,202;0,23237
232,0000;-0,538348;281,034;0,225595
231,0000;-0,438678;283,05;0,220253
230,0000;-0,287532;285,261;0,216327
229,0000;-0,148138;287,725;0,214042
228,0000;0,0818771;290,471;0,213607
227,0000;0,316071;293,519;0,214969
226,0000;0,540386;296,89;0,218335
225,0000;0,751599;300,619;0,227084
224,0000;1,05625;304,766;0,240664
223,0000;1,30104;309,383;0,257644
222,0000;1,59825;314,537;0,278566
221,0000;1,76462;320,271;0,303463
220,0000;2,12659;326,579;0,33214
219,0000;2,23266;333,449;0,3642
218,0000;2,25247;340,823;0,398968
217,0000;2,02081;348,647;0,435531
216,0000;1,86966;356,895;0,473519
215,0000;1,36201;365,576;0,512422
214,0000;0,707794;374,834;0,552429
213,0000;0,539967;384,974;0,59373
212,0000;-0,102719;396,141;0,636168
211,0000;-0,440666;408,417;0,679706
210,0000;-0,993478;421,761;0,724256
209,0000;-1,31266;436,251;0,77001
208,0000;-0,650633;452,129;0,812801
207,0000;-0,0283371;469,694;0,860492
206,0000;0,471619;489,3;0,915331
205,0000;0,679871;511,357;0,978756
204,0000;0,98597;536,454;1,05248
203,0000;0,98141;565,427;1,139
202,0000;0,237378;599,336;1,24096
201,0000;0,265991;639,605;1,33989
200,0000;-0,211223;687,997;1,4638

##### Extended Information
[Comments]
Sample name
Comment
User
Division
Company;FZ rossendorf Biophysik

[Detailed Information]
Creation date;15.09.2020 14:29

Data array type;Linear data array * 3
Horizontal axis;Wavelength [nm]
Vertical axis(1);CD [mdeg]
Vertical axis(2);HT [V]
Vertical axis(3);Abs
Start;330 nm
End;200 nm
Data interval;1 nm
Data points;131     

[Measurement Information]
Instrument Name;Biophysik
Model Name;J-815
Serial No.;A022661168

Accessory;CDF-426S
Accessory S/N;A003561183
  Control Sonsor;Holder
  Monitor Sensor;Holder
  Start Mode;Keep target temperature +/-0.30 deg C while 5 seconds
  Cell Length;1 mm

Measurement date;15.09.2020 12:19

Photometric Mode;CD, HT, Abs
Measure Range;330 - 200 nm
Data pitch;1 nm
Sensitivity;Standard
D.I.T.;2 sec
Bandwidth;3.00 nm
Start Mode;Immediately
Scanning Speed;100 nm/min
Baseline Correction;Baseline
CD Detector;PMT
PMT Voltage;Auto
Accumulations;3

